

Sample:                                                                 
Filename: C:\Users\Dusan\Desktop\Deimos\\Background_23-30_11_2018.Chn
File created or changed:   30.11.2018
No.of channels: 16100
Measurement date: 23/Nov/18     14:32
Evaluated : 09.01.2019 13:31:03
Live time: 598651.0 s   Real time: 598795.0 s    Dead time:  0.02 %
Counts total:   3188512    Input counts/sec:      5
            Satellite peaks:
s10: 0.000  s11: 0.000  s12: 0.000
d10:   2.5  d11:   4.0  d12:  10.0
s20: 0.000  s21: 0.000  s22: 0.000
d20:   0.0  d21:   0.0  d22:   0.0
base: 0.00000

            ENERGY CALIBRATION
 2.471634945697E+0001  1.718606011557E-0001  0.000000000000E+0000  0.000000000000E+0000

            FWHM CALIBRATION
 3.273492614048E+0001  3.620564808110E-0004  0.000000000000E+0000

Energy: preliminary linear calibration
FWHM: preliminary linear calibration

  channel  cherr    energy      area aerr%  fwhm chisq it left   n  lim isotope
==============================================================================
  239.842  2.230    65.936    5434.7   7.8 47.28  0.99  34  165 311 4193
  289.299  0.617    74.435   20078.7   2.8 47.30  0.99  34  165 311 4592
  354.036  0.682    85.561   12091.0   3.4 47.32  0.99  34  165 311 4436
 2830.892  0.319   511.235   18441.9   2.3 47.12  1.04  21 2727 200 3326
 3327.808  2.697   596.635    2275.9  19.5 47.68  1.01  23 3286 210 2648
 3403.322  1.015   609.613    5129.8   7.8 47.71  1.01  23 3286 210 2779
 5147.560  2.244   909.379    1424.4  22.1 28.02  0.96  38 5037 240 1288
 5170.246  1.801   913.278    1897.0  16.4 28.03  0.96  38 5037 240 1385
 5468.324  3.063   964.506     825.0  21.3 28.69  0.85  31 5394 209 1266
 5498.644  1.219   969.717    1979.3  11.5 28.70  0.85  31 5394 209 1311
 8358.722  0.092  1461.251   52053.6   0.7 43.01  1.38  98 8245 216 2338
 9065.928  7.830  1582.792     382.3  25.8 52.06  1.01  52 8958 267 1015
 9122.455  1.382  1592.507    2153.3   7.6 52.08  1.01  52 8958 267 1269
10125.461  0.493  1764.884    3433.7   3.8 43.19  0.92  14 10015 221 1133
12678.274  1.175  2203.612     967.0   9.3 41.48  1.09  34 12563 234  655
15057.018  0.255  2612.424    6806.7   2.0 43.27  0.95  32 14933 234  901
