

Sample:                                                                 
Filename: C:\Users\Dusan\Desktop\Deimos\\Y_d2_p1.Chn
File created or changed:   17.11.2018
No.of channels: 16100
Measurement date: 12/Nov/18     09:25
Evaluated : 10.01.2019 14:13:18
Live time: 86419.0 s   Real time: 87645.0 s    Dead time:  1.40 %
Counts total:  32282740    Input counts/sec:    374
            Satellite peaks:
s10: 0.000  s11: 0.000  s12: 0.000
d10:   2.5  d11:   4.0  d12:  10.0
s20: 0.000  s21: 0.000  s22: 0.000
d20:   0.0  d21:   0.0  d22:   0.0
base: 0.00000

            ENERGY CALIBRATION
 2.471634945697E+0001  1.718606011557E-0001  0.000000000000E+0000  0.000000000000E+0000

            FWHM CALIBRATION
 3.273492614048E+0001  3.620564808110E-0004  0.000000000000E+0000

Energy: preliminary linear calibration
FWHM: preliminary linear calibration

  channel  cherr    energy      area aerr%  fwhm chisq it left   n  lim isotope
==============================================================================
  290.889  1.223    74.709   11795.1  16.3 27.86  0.78  30  246  78 9165
  783.725  1.017   159.408    7777.8  19.0 18.98  0.80  41  757  56 6339
 2073.364  0.031   381.046  124305.1   0.4 16.16 26.45  27 2036 124 2978
 2117.753  0.003   388.675 4261145.2   0.1 16.18 26.45  27 2036 124 4199
 2677.701  0.004   484.908 3659170.2   0.1 16.31 22.44  21 2579 188 3419
 2830.273  0.107   511.129   19286.6   1.7 20.67  1.01  21 2731 177 1543
 4594.121  0.162   814.265    5839.4   3.2 16.93  1.42  21 4489 160  731
 5083.012  0.017   898.286  208138.5   0.3 17.27  1.13  36 5046  76 1251
 5149.201  0.431   909.661    2243.3   7.2 20.30  0.80  21 5109 109  853
 6124.429  0.881  1077.264    1002.2  13.6 21.20  0.93  17 6016 196  772
 6378.806  0.897  1120.982     651.7  18.2 16.21  0.94  18 6271 155  556
 7567.079  0.285  1325.199    4234.0   4.1 23.01  0.89  17 7461 184  910
 8357.538  0.150  1461.048    7158.4   2.6 18.56  0.90  13 8250 194  738
10123.429  0.742  1764.535     514.0  13.8 17.86  1.30  26 10014 213  346
10538.918  0.026  1835.941  107297.2   0.4 19.23  1.08  20 10428 217  751
15054.113  0.312  2611.925     959.3   5.3 19.66  0.95  16 14941 219  169
15647.083  0.159  2713.833    2016.8   3.4 15.88  0.76  16 15527 228  170
