

Sample:                                                                 
Filename: C:\Users\Dusan\Desktop\Deimos\\Y_d3_p1.Chn
File created or changed:   20.11.2018
No.of channels: 16100
Measurement date: 17/Nov/18     10:54
Evaluated : 10.01.2019 14:17:24
Live time: 172172.0 s   Real time: 173113.0 s    Dead time:  0.54 %
Counts total:  24220626    Input counts/sec:    141
            Satellite peaks:
s10: 0.000  s11: 0.000  s12: 0.000
d10:   2.5  d11:   4.0  d12:  10.0
s20: 0.000  s21: 0.000  s22: 0.000
d20:   0.0  d21:   0.0  d22:   0.0
base: 0.00000

            ENERGY CALIBRATION
 2.471634945697E+0001  1.718606011557E-0001  0.000000000000E+0000  0.000000000000E+0000

            FWHM CALIBRATION
 3.273492614048E+0001  3.620564808110E-0004  0.000000000000E+0000

Energy: preliminary linear calibration
FWHM: preliminary linear calibration

  channel  cherr    energy      area aerr%  fwhm chisq it left   n  lim isotope
==============================================================================
  290.464  0.631    74.636    8920.8  10.6 18.96  0.96  70  239 147 5196
  353.667  1.226    85.498    4479.9  15.9 18.99  0.96  70  239 147 5111
 2118.060  0.004   388.727 2684744.7   0.1 14.57 15.66  16 2015 200 2653
 2678.108  0.004   484.978 2309028.6   0.1 14.78 13.52  21 2576 160 2140
 2830.857  0.119   511.229   17971.4   2.1 19.17  0.98  19 2731 152 1752
 4594.902  0.107   814.399   11554.5   2.2 16.15  1.09  16 4497 163  931
 5083.761  0.011   898.415  398534.9   0.2 15.79  1.38  19 4978 157 1432
 5153.997  0.792   910.485    1988.7  12.9 23.00  1.12  29 5125  86 1189
 6123.362  0.547  1077.081    1334.7  11.8 15.12  0.96  19 6017 162  722
 6379.007  1.070  1121.016    1022.8  17.4 20.03  1.15  18 6272 175  936
 7568.167  0.186  1325.386    8119.0   2.9 21.24  0.96  26 7459 159 1149
 8358.657  0.094  1461.240   14839.9   1.8 17.33  1.01  26 8304  94  889
10124.546  0.470  1764.727     976.8   9.6 16.17  1.07  17 10015 176  396
10540.378  0.017  1836.192  206514.4   0.3 17.98  1.17  13 10428 208 1210
15056.646  0.205  2612.361    1966.5   3.7 18.92  1.12  13 14938 224  183
15653.580  0.108  2714.950    3845.5   2.4 14.90  1.21  24 15509 227  205
