

Sample:                                                                 
Filename: C:\Users\Dusan\Desktop\Deimos\\pozad dlouh.chn
File created or changed:   13.12.2018
No.of channels:  8050
Measurement date: 28/Nov/18     11:16
Evaluated : 18.01.2019 13:46:55
Live time: 503210.0 s   Real time: 503263.0 s    Dead time:  0.01 %
Counts total:   1028799    Input counts/sec:      2
            Satellite peaks:
s10: 0.000  s11: 0.000  s12: 0.000
d10:   2.5  d11:   4.0  d12:  10.0
s20: 0.000  s21: 0.000  s22: 0.000
d20:   0.0  d21:   0.0  d22:   0.0
base: 0.00000

            ENERGY CALIBRATION
 3.067954749864E+0000  3.623047361888E-0001  0.000000000000E+0000  0.000000000000E+0000

            FWHM CALIBRATION
 2.544801248291E+0000  6.872981941803E-0004  0.000000000000E+0000

Energy: preliminary linear calibration
FWHM: preliminary linear calibration

  channel  cherr    energy      area aerr%  fwhm chisq it left   n  lim isotope
==============================================================================
  115.733  0.081    44.999    1264.7   8.8  2.97  0.73  20   99  32  211
  163.558  0.091    62.326     795.5  12.2  2.37  1.84  24  147  32  163
  190.158  0.198    71.963     453.4  13.9  2.81  1.17  17  180  35  198
  196.272  0.065    74.178    1532.2   6.4  2.81  1.17  17  180  35  198
  202.456  0.084    76.419    1167.1   7.2  2.81  1.17  17  180  35  202
  223.740  0.142    84.130     917.2  11.7  3.50  1.07  27  207  30  254
  231.077  0.170    86.788     764.0  13.4  3.50  1.07  27  207  30  254
  245.958  0.056    92.180    2311.3   5.7  3.17  1.79  17  234  25  235
  504.686  0.091   185.918    1375.5   9.2  3.22  0.63  22  488  30  249
  650.975  0.075   238.919    1644.1   7.0  3.29  1.57  29  634  35  234
  660.119  0.135   242.232     834.6   9.6  3.30  1.57  29  634  35  232
  807.550  0.069   295.647    1575.0   7.0  3.21  0.98  12  790  31  203
  925.951  0.262   338.544     336.3  26.2  3.23  0.75  16  908  33  187
  964.062  0.043   352.352    2720.0   4.3  3.29  1.05  14  946  35  184
 1403.119  0.039   511.425   10390.8   1.9  7.17  1.82  12 1384  37  312
 1534.146  0.220   558.896     298.1  22.1  3.24  1.26  25 1515  33  131
 1602.493  0.159   583.659     561.8  13.1  3.89  0.93  17 1583  35  157
 1674.524  0.054   609.756    2117.7   4.7  3.86  1.32  20 1655  30  157
 2112.583  0.382   768.467     187.3  32.1  3.86  0.66  23 2093  34  136
 2208.913  0.487   803.368     242.5  29.3  5.56  1.56  16 2187  38  191
 2507.454  0.203   911.530     628.3  12.1  5.65  0.71  31 2487  31  183
 2666.818  0.294   969.269     222.5  24.4  3.88  1.34  16 2646  36  117
 3084.345  0.144  1120.541     742.1   9.1  5.18  0.81  14 3062  39  146
 3409.084  0.241  1238.195     338.0  16.6  4.79  0.98  22 3391  36  126
 3794.258  0.232  1377.746     213.1  19.4  3.81  1.13  19 3771  39   83
 4022.881  0.037  1460.577    4871.6   2.3  5.32  2.35  16 4006  33  121
 4156.505  0.289  1508.989     126.1  26.4  3.50  1.45  17 4132  41   67
 4386.333  0.366  1592.257     197.4  21.2  5.58  0.88  15 4362  44  112
 4764.417  0.247  1729.239     250.5  16.6  5.27  1.28  15 4739  34   96
 4860.465  0.084  1764.037    1434.7   4.7  6.02  1.31  14 4837  36   93
 5089.224  0.264  1846.918     168.1  19.7  4.44  1.02  17 5063  50   68
 5795.544  0.365  2102.821     245.3  16.4  7.37  0.81  13 5768  48  100
 5837.169  0.303  2117.902      80.3  30.3  3.28  0.68  24 5810  40   50
 6072.716  0.181  2203.242     530.5   8.8  7.08  1.21  15 6045  55   94
 6744.526  0.449  2446.642     166.7  19.5  7.61  0.86  13 6716  58   83
 7204.234  0.084  2613.196    1880.4   3.8  7.62  1.41  12 7175  53   91
